# f/kHz U_a/V
#2.677	0.39
#5.079	0.32
#10.600	0.43
12.608	0.75
14.920	1.75
16.747	3.31
17.098	1.85 # Ausrei√üer???
18.787	5.37
20.192	7.24
20.535	7.21
21.809	8.39
23.009	8.87
24.434	8.77
26.209	8.15
27.809	7.23
30.821	5.57
32.526	3.86
33.041	3.32
35.554	2.16
37.925	1.34
39.882	1.02
42.107	0.72
45.715	0.44
48.860	0.31
51.061	0.257
52.345	0.234
55.561	0.190
58.132	0.169
60.934	0.150
65.829	0.141
71.522	0.133
75.763	0.130

9.261	0.14
8.745	0.137
5.161	0.118
4.169	0.117
3.800	0.117
1.188	0.116
